SOURCES 4D Calculation
<<<<<<<<<<<>>>>>>>>>>>


 Title: M&C 2019 test problem material                                               
 Neutron Source Spectra in Columnar Format.
 Examine other tape files for additional information.
 Recall the Energy values are bin bounds.


            Normalized Totals (neutrons/sec-basis)
            ==========================================
 E (MeV)       (a,n)         (sf)          (dn)          Total
 ------------  ------------  ------------  ------------  ------------
 1.700000E+01  0.000000E+00  4.847689E-06  0.000000E+00  2.074975E-08
 1.500000E+01  0.000000E+00  1.800175E-05  0.000000E+00  7.705358E-08
 1.350000E+01  0.000000E+00  7.311017E-05  0.000000E+00  3.129363E-07
 1.200000E+01  5.880432E-03  5.113737E-04  0.000000E+00  5.857450E-03
 1.000000E+01  1.361014E-01  3.725212E-03  0.000000E+00  1.355348E-01
 7.790000E+00  1.622818E-01  1.437193E-02  0.000000E+00  1.616487E-01
 6.070000E+00  3.162229E-01  1.049233E-01  0.000000E+00  3.153185E-01
 3.680000E+00  1.702539E-01  9.873197E-02  0.000000E+00  1.699478E-01
 2.865000E+00  7.439213E-02  1.182406E-01  0.000000E+00  7.457981E-02
 2.232000E+00  3.650015E-02  1.235397E-01  0.000000E+00  3.687271E-02
 1.738000E+00  2.063026E-02  1.159846E-01  0.000000E+00  2.103841E-02
 1.353000E+00  4.340706E-02  1.815013E-01  0.000000E+00  4.399815E-02
 8.230000E-01  2.490288E-02  1.128219E-01  0.000000E+00  2.527921E-02
 5.000000E-01  7.603387E-03  6.247547E-02  0.000000E+00  7.838258E-03
 3.030000E-01  1.316120E-03  3.209986E-02  0.000000E+00  1.447884E-03
 1.840000E-01  6.588909E-04  2.382920E-02  0.000000E+00  7.580677E-04
 6.760000E-02  9.963210E-05  5.538227E-03  0.000000E+00  1.229111E-04
 2.480000E-02  1.723386E-05  1.248136E-03  0.000000E+00  2.250254E-05
 9.120000E-03  3.348718E-06  2.800147E-04  0.000000E+00  4.532943E-06
 3.350000E-03  6.751203E-07  6.236701E-05  0.000000E+00  9.391825E-07
 1.235000E-03  1.475222E-07  1.398755E-05  0.000000E+00  2.067622E-07
 4.540000E-04  3.363802E-08  3.117645E-06  0.000000E+00  4.683861E-08
 1.670000E-04  6.900247E-09  6.957464E-07  0.000000E+00  9.848742E-09
 6.140000E-05  1.793928E-09  1.550367E-07  0.000000E+00  2.449859E-09
 2.260000E-05  3.482526E-10  3.461930E-08  0.000000E+00  4.949443E-10
 8.320000E-06  8.121806E-11  7.736106E-09  0.000000E+00  1.139836E-10
 3.060000E-06  1.719816E-11  1.722503E-09  0.000000E+00  2.449744E-11
 1.130000E-06  6.380250E-12  3.878603E-10  0.000000E+00  8.013114E-12
 4.140000E-07  2.334673E-12  8.593371E-11  0.000000E+00  2.692505E-12
 1.520000E-07  3.179216E-13  2.458655E-11  0.000000E+00  4.217995E-13
 1.390000E-10  0.000000E+00  0.000000E+00  0.000000E+00  0.000000E+00
 Total         1.000273E+00  9.999992E-01  0.000000E+00  1.000271E+00

            Absolute Totals (neutrons/sec-basis)
            ==========================================
 E (MeV)       (a,n)         (sf)          (dn)          Total
 ------------  ------------  ------------  ------------  ------------
 1.700000E+01  0.000000E+00  3.288211E-03  0.000000E+00  3.288211E-03
 1.500000E+01  0.000000E+00  1.221068E-02  0.000000E+00  1.221068E-02
 1.350000E+01  0.000000E+00  4.959099E-02  0.000000E+00  4.959099E-02
 1.200000E+01  9.278828E+02  3.468674E-01  0.000000E+00  9.282297E+02
 1.000000E+01  2.147566E+04  2.526830E+00  0.000000E+00  2.147819E+04
 7.790000E+00  2.560672E+04  9.748549E+00  0.000000E+00  2.561646E+04
 6.070000E+00  4.989733E+04  7.117001E+01  0.000000E+00  4.996850E+04
 3.680000E+00  2.686464E+04  6.697039E+01  0.000000E+00  2.693161E+04
 2.865000E+00  1.173845E+04  8.020317E+01  0.000000E+00  1.181866E+04
 2.232000E+00  5.759418E+03  8.379757E+01  0.000000E+00  5.843216E+03
 1.738000E+00  3.255282E+03  7.867294E+01  0.000000E+00  3.333955E+03
 1.353000E+00  6.849271E+03  1.231133E+02  0.000000E+00  6.972384E+03
 8.230000E-01  3.929466E+03  7.652769E+01  0.000000E+00  4.005994E+03
 5.000000E-01  1.199751E+03  4.237742E+01  0.000000E+00  1.242128E+03
 3.030000E-01  2.076726E+02  2.177349E+01  0.000000E+00  2.294461E+02
 1.840000E-01  1.039675E+02  1.616347E+01  0.000000E+00  1.201309E+02
 6.760000E-02  1.572111E+01  3.756607E+00  0.000000E+00  1.947772E+01
 2.480000E-02  2.719358E+00  8.466167E-01  0.000000E+00  3.565975E+00
 9.120000E-03  5.283997E-01  1.899354E-01  0.000000E+00  7.183351E-01
 3.350000E-03  1.065283E-01  4.230385E-02  0.000000E+00  1.488322E-01
 1.235000E-03  2.327777E-02  9.487826E-03  0.000000E+00  3.276560E-02
 4.540000E-04  5.307798E-03  2.114714E-03  0.000000E+00  7.422512E-03
 1.670000E-04  1.088801E-03  4.719282E-04  0.000000E+00  1.560729E-03
 6.140000E-05  2.830668E-04  1.051622E-04  0.000000E+00  3.882290E-04
 2.260000E-05  5.495135E-05  2.348244E-05  0.000000E+00  7.843379E-05
 8.320000E-06  1.281553E-05  5.247439E-06  0.000000E+00  1.806297E-05
 3.060000E-06  2.713726E-06  1.168382E-06  0.000000E+00  3.882108E-06
 1.130000E-06  1.006750E-06  2.630876E-07  0.000000E+00  1.269838E-06
 4.140000E-07  3.683918E-07  5.828926E-08  0.000000E+00  4.266810E-07
 1.520000E-07  5.016536E-08  1.667718E-08  0.000000E+00  6.684254E-08
 1.390000E-10  0.000000E+00  0.000000E+00  0.000000E+00  0.000000E+00
 Total         1.577916E+05  6.783050E+02  0.000000E+00  1.584699E+05
